VAMAS Surface Chemical Analysis Standard Data Transfer Format 1988 May 4
Not Specified
Kratos Axis
Not Specified
/C=/data/KristianBB/20171211/Emil.dset
12
Casa Info Follows
5
C 1s
C 1s
F 1s
F 1s
N 1s
N 1s
O 1s
O 1s
S 2p
S 2p
MAP
REGULAR
3
6
32768
32768
1
Etch Time
s
0
0
0
0
12
Survey/2
Not Specified
2017
12
11
12
50
42
0
15
Casa Info Follows
1
Calib M = 280.836 A = 284.5 BE ADD
1
annot regions Display 0.05 0.05 RGB(0,0,0) Font(12,18,0,0,Times New Roman)

4
CASA region (*O 1s*) (*Shirley*) 946.22596 960.276 0.78 1 0 0 299 542 275 9.3 (*O 1s*) 15.9994
CASA region (*C 1s*) (*Shirley*) 1189.5918 1207.276 0.278 1 0 0 299 542 275 9.3 (*C 1s*) 12.011
CASA region (*N 1s*) (*Shirley*) 1083.9344 1089.6329 0.477 1 0 0 299 542 275 9.3 (*N 1s*) 14.0067
CASA region (*S 2p*) (*Shirley*) 1314.9172 1320.8173 0.668 1 0 0 299 542 275 9.3 (*S 2p*) 32.0648
0
   XPS     Spectrum    Lens Mode:Hybrid   Resolution:Pass energy 160   Iris(Aper):slot(Slot)
   Acqn. Time(s): 540        Sweeps: 2        Anode:Mono(Al (Mono))(150 W)   Step(meV): 500.0 
   Dwell Time(ms): 100        Charge Neutraliser :On   Acquired On :17/12/11 12:50:42
XPS
-4
-1
0
Mono(Al (Mono))
1486.69
150
1e+037
1e+037
6000
6000
1e+037
1e+037
FAT
160
1e+037
-4.803
0
1e+037
1e+037
1e+037
1e+037
Wide
None
-1
Kinetic Energy
eV
136.69
0.5
2
Intensity
d
Transmission
d
pulse counting
0.1
2
0
1e+037
1e+037
1e+037
0
5402
140
65128
25.7891
29.504
10162
27.0049
9954
27.0049
10078
27.0049
10077
27.0049
10162
27.0049
9928
27.0049
9887
27.0049
10025
27.0049
10119
27.0049
9991
27.0049
10092
27.0049
9920
27.0049
10129
27.0049
9988
27.0049
10043
27.0049
10077
27.0049
10016
27.0049
10008
27.0049
10063
27.0049
10023
27.0049
10103
27.0049
10129
27.0049
10274
27.0049
10323
27.0049
9958
27.0049
9896
27.0049
10206
27.0049
10153
27.0049
9948
27.0049
10023
27.0049
10102
27.0049
10103
27.0049
10109
27.0049
9970
27.0049
10026
27.0049
9994
27.0049
9962
27.0049
9992
27.0049
10143
27.0049
10073
27.0049
10028
27.0049
9990
27.0049
9978
27.0049
10115
27.0049
10175
27.0049
9861
27.0049
10233
27.0049
9999
27.0049
10012
27.0049
10053
27.0049
10229
27.0049
10178
27.0049
10064
27.0049
10236
27.0049
10169
27.0049
10109
27.0049
10075
27.0049
10184
27.0049
10086
27.0049
10109
27.0049
10212
27.0049
10200
27.0049
10140
27.0049
10159
27.0049
10036
27.0049
9986
27.0049
9959
27.0049
9999
27.0049
10083
27.0049
10140
27.0049
10103
27.0049
10191
27.0049
10120
27.0049
10192
27.0049
10101
27.0049
10333
27.0049
10103
27.0049
10232
27.0049
10215
27.0049
10337
27.0049
10310
27.0049
10352
27.0049
10197
27.0049
10189
27.0049
10060
27.0049
10166
27.0049
10035
27.0049
10018
27.0049
10222
27.0049
10226
27.0049
10391
27.0049
10329
27.0049
10448
27.0049
10386
27.0049
10324
27.0049
10358
27.0049
10328
27.0049
10339
27.0049
10389
27.0049
10288
27.0049
10380
27.0049
10394
27.0049
10508
27.0049
10453
27.0049
10121
27.0049
10243
27.0049
10277
27.0049
10388
27.0049
10302
27.0049
10317
27.0049
10462
27.0049
10457
27.0049
10441
27.0049
10380
27.0049
10484
27.0049
10539
27.0049
10558
27.0049
10593
27.0049
10471
27.0049
10501
27.0049
10485
27.0049
10523
27.0049
10383
27.0049
10461
27.0049
10515
27.0049
10342
27.0049
10527
27.0049
10615
27.0049
10492
27.0049
10687
27.0049
10645
27.0049
10632
27.0049
10679
27.0049
10649
27.0049
10513
27.0049
10623
27.0049
10773
27.0049
10703
27.0049
10735
27.0049
10813
27.0049
10890
27.0049
10983
27.0049
10894
27.0049
10934
27.0049
10995
27.0049
10936
27.0049
11158
27.0049
10958
27.005
11138
27.005
11223
27.0051
11095
27.0051
11113
27.0052
10975
27.0052
10892
27.0053
11042
27.0054
11124
27.0054
11109
27.0055
10991
27.0055
11010
27.0056
10989
27.0056
11022
27.0057
11113
27.0057
11096
27.0058
11257
27.0059
11306
27.0059
11118
27.006
11122
27.006
11213
27.0061
11292
27.0061
11521
27.0062
11362
27.0063
11232
27.0063
11303
27.0064
11272
27.0064
11422
27.0065
11155
27.0065
11423
27.0066
11347
27.0067
11454
27.0067
11431
27.0068
11259
27.0068
11313
27.0069
11403
27.0069
11387
27.007
11437
27.007
11442
27.0071
11419
27.0072
11424
27.0072
11585
27.0073
11532
27.0073
11505
27.0074
11447
27.0074
11588
27.0075
11612
27.0076
11759
27.0076
11844
27.0077
11731
27.0077
11712
27.0078
11734
27.0078
11801
27.0079
11776
27.008
11747
27.008
11845
27.0081
11731
27.0081
11926
27.0082
11907
27.0082
11971
27.0083
12007
27.0083
12093
27.0084
12275
27.0085
12158
27.0085
12236
27.0086
12343
27.0086
12433
27.0087
12471
27.0087
12404
27.0088
12344
27.0089
12303
27.0089
12206
27.009
12330
27.009
12383
27.0091
12457
27.0091
12507
27.0092
12424
27.0093
12470
27.0093
12484
27.0094
12290
27.0094
12292
27.0095
12360
27.0095
12331
27.0096
12338
27.0096
12214
27.0097
12341
27.0098
12217
27.0098
12266
27.0099
12335
27.0099
12285
27.01
12296
27.01
12436
27.0101
12636
27.0102
12496
27.0102
12789
27.0103
13068
27.0103
12924
27.0104
13278
27.0104
13436
27.0105
13272
27.0105
13496
27.0115
13394
27.0131
13522
27.0148
13521
27.0164
13649
27.018
13613
27.0197
13810
27.0213
13782
27.0229
13750
27.0246
13664
27.0262
13780
27.0278
13808
27.0295
13733
27.0311
13733
27.0327
13707
27.0344
13595
27.036
13410
27.0377
13382
27.0393
13400
27.0409
13381
27.0426
13354
27.0442
13189
27.0458
13035
27.0475
12834
27.0491
12721
27.0507
12603
27.0524
12450
27.054
12127
27.0556
11813
27.0573
11726
27.0589
11554
27.0605
11206
27.0622
11063
27.0638
10751
27.0655
10479
27.0671
10218
27.0687
9995
27.0704
9773
27.072
9439
27.0736
9255
27.0753
8983
27.0769
8584
27.0785
8517
27.0802
8187
27.0818
7948
27.0834
7871
27.0851
7742
27.0867
7557
27.0883
7261
27.09
7211
27.0916
7113
27.0933
7112
27.0949
6935
27.0965
6930
27.0982
6739
27.0998
6803
27.1014
6711
27.1031
6641
27.1047
6680
27.1063
6821
27.108
6724
27.1096
6689
27.1112
6642
27.1129
6498
27.1145
6634
27.1161
6660
27.1178
6586
27.1194
6608
27.1211
6643
27.1227
6668
27.1243
6636
27.126
6586
27.1276
6681
27.1292
6618
27.1309
6576
27.1325
6587
27.1341
6555
27.1358
6792
27.1374
6692
27.139
6682
27.1407
6649
27.1423
6704
27.1439
6654
27.1456
6682
27.1472
6738
27.1489
6630
27.1505
6681
27.1521
6670
27.1538
6684
27.1554
6784
27.157
6688
27.1587
6739
27.1603
6778
27.1619
6737
27.1636
6701
27.1652
6699
27.1668
6642
27.1685
6702
27.1701
6747
27.1717
6706
27.1734
6714
27.1731
6766
27.1714
6725
27.1697
6698
27.168
6697
27.1663
6731
27.1646
6746
27.1629
6931
27.1612
6918
27.1595
6869
27.1578
6696
27.1561
6811
27.1544
6790
27.1527
6773
27.151
6851
27.1493
6799
27.1476
6864
27.1459
6766
27.1442
6886
27.1425
6881
27.1407
6823
27.139
6873
27.1373
6934
27.1356
6876
27.1339
6895
27.1322
6807
27.1305
6784
27.1288
6826
27.1271
6791
27.1254
6850
27.1237
6865
27.122
6960
27.1203
6897
27.1186
6792
27.1169
6842
27.1152
6836
27.1135
6860
27.1118
6994
27.11
6914
27.1083
6871
27.1066
6896
27.1049
6954
27.1032
6871
27.1015
6888
27.0998
6960
27.0981
6810
27.0964
7002
27.0947
6846
27.093
6908
27.0913
6950
27.0896
6990
27.0879
6918
27.0862
6806
27.0845
6823
27.0828
6923
27.0811
6940
27.0793
7007
27.0776
6908
27.0759
6899
27.0742
7015
27.0725
7028
27.0708
6990
27.0691
6953
27.0674
7016
27.0657
6975
27.064
6938
27.0623
6960
27.0606
6998
27.0589
7032
27.0572
7042
27.0555
6978
27.0538
7098
27.0521
7101
27.0504
6984
27.0487
7138
27.0469
7097
27.0452
7001
27.0435
7058
27.0418
6950
27.0401
6949
27.0384
7032
27.0367
7105
27.035
7105
27.0333
7125
27.0316
7084
27.0299
7134
27.0282
7128
27.0265
7162
27.0248
7108
27.0231
7063
27.0214
7038
27.0197
7134
27.018
7169
27.0162
7125
27.0145
7029
27.0128
7021
27.0111
7107
27.0094
7167
27.0077
7185
27.006
7043
27.0043
7122
27.0023
7209
26.9999
7181
26.9976
7198
26.9953
7140
26.993
7103
26.9907
7081
26.9884
7110
26.9861
7188
26.9837
7247
26.9814
7268
26.9791
7320
26.9768
7132
26.9745
7312
26.9722
7180
26.9699
7247
26.9675
7334
26.9652
7322
26.9629
7358
26.9606
7426
26.9583
7373
26.956
7189
26.9536
7278
26.9513
7234
26.949
7342
26.9467
7303
26.9444
7261
26.9421
7433
26.9398
7473
26.9374
7364
26.9351
7231
26.9328
7260
26.9305
7334
26.9282
7344
26.9259
7208
26.9235
7259
26.9212
7384
26.9189
7413
26.9166
7417
26.9143
7291
26.912
7313
26.9097
7359
26.9073
7310
26.905
7353
26.9027
7354
26.9004
7342
26.8981
7456
26.8958
7419
26.8935
7444
26.8911
7491
26.8888
7403
26.8865
7531
26.8842
7465
26.8819
7495
26.8796
7425
26.8772
7513
26.8749
7439
26.8726
7379
26.8703
7242
26.868
7274
26.8657
7441
26.8634
7421
26.861
7356
26.8587
7411
26.8564
7491
26.8541
7424
26.8518
7384
26.8495
7542
26.8471
7504
26.8448
7305
26.8425
7402
26.8402
7407
26.8379
7322
26.8356
7310
26.8333
7451
26.8309
7395
26.8286
7247
26.8263
7325
26.824
7349
26.8217
7372
26.8194
7366
26.8171
7305
26.8147
7305
26.8124
7549
26.8101
7394
26.8078
7374
26.8055
7404
26.8032
7504
26.8008
7432
26.7985
7443
26.7962
7475
26.7939
7490
26.7916
7453
26.7893
7504
26.787
7422
26.7846
7588
26.7823
7592
26.78
7529
26.7777
7470
26.7754
7340
26.7731
7554
26.7707
7561
26.7682
7524
26.7657
7560
26.7633
7522
26.7608
7600
26.7584
7605
26.7559
7667
26.7534
7602
26.751
7630
26.7485
7666
26.7461
7553
26.7436
7672
26.7411
7711
26.7387
7534
26.7362
7495
26.7337
7504
26.7313
7509
26.7288
7586
26.7264
7664
26.7239
7565
26.7214
7673
26.719
7598
26.7165
7603
26.7141
7730
26.7116
7583
26.7091
7643
26.7067
7821
26.7042
7702
26.7018
7713
26.6993
7733
26.6968
7738
26.6944
7760
26.6919
7669
26.6894
7504
26.687
7754
26.6845
7718
26.6821
7652
26.6796
7756
26.6771
7750
26.6747
7637
26.6722
7677
26.6698
7700
26.6673
7806
26.6648
7856
26.6624
7821
26.6599
7655
26.6574
7664
26.655
7785
26.6525
7890
26.6501
7857
26.6476
7901
26.6451
7907
26.6427
7805
26.6402
7803
26.6378
7748
26.6353
7834
26.6328
7898
26.6304
7784
26.6279
7808
26.6255
7730
26.623
7880
26.6205
7901
26.6181
7848
26.6156
7869
26.6131
7825
26.6107
7826
26.6082
7851
26.6058
7996
26.6033
7988
26.6008
7916
26.5984
7996
26.5959
7937
26.5935
8007
26.591
7991
26.5885
7856
26.5861
7848
26.5836
7903
26.5812
8014
26.5787
7966
26.5762
8016
26.5738
8069
26.5713
7943
26.5688
8019
26.5664
8150
26.5639
8075
26.5615
8134
26.559
8031
26.5565
8027
26.5541
7960
26.5516
8118
26.5492
8071
26.5467
8062
26.5442
8103
26.5418
8029
26.5393
8166
26.5368
8173
26.5344
8185
26.5319
8217
26.5295
8135
26.527
8079
26.5256
8195
26.5249
8169
26.5243
8151
26.5236
8039
26.523
8072
26.5223
8253
26.5217
8237
26.521
8118
26.5204
8149
26.5198
8340
26.5191
8445
26.5185
8261
26.5178
8242
26.5172
8184
26.5165
8264
26.5159
8196
26.5153
8321
26.5146
8277
26.514
8242
26.5133
8345
26.5127
8413
26.512
8234
26.5114
8352
26.5107
8292
26.5101
8594
26.5095
8388
26.5088
8367
26.5082
8410
26.5075
8488
26.5069
8447
26.5062
8427
26.5056
8450
26.5049
8564
26.5043
8451
26.5037
8489
26.503
8440
26.5024
8373
26.5017
8539
26.5011
8465
26.5004
8354
26.4998
8378
26.4992
8412
26.4985
8621
26.4979
8630
26.4972
8537
26.4966
8534
26.4959
8757
26.4953
8667
26.4946
8691
26.494
8685
26.4934
8622
26.4927
8742
26.4921
8750
26.4914
8779
26.4908
8818
26.4901
8909
26.4895
9004
26.4888
8983
26.4882
8963
26.4876
9037
26.4869
9048
26.4863
8986
26.4856
9060
26.485
9112
26.4843
9027
26.4837
9040
26.483
8757
26.4824
8869
26.4818
8848
26.4811
8900
26.4805
8986
26.4798
8857
26.4792
8768
26.4785
8590
26.4779
8595
26.4773
8514
26.4766
8557
26.476
8624
26.4753
8420
26.4747
8437
26.474
8515
26.4734
8521
26.4727
8369
26.4721
8466
26.4715
8420
26.4708
8537
26.4702
8520
26.4695
8635
26.4689
8367
26.4682
8387
26.4676
8407
26.4669
8651
26.4663
8748
26.4657
8747
26.465
8712
26.4644
8809
26.4637
9145
26.4631
9107
26.4624
9122
26.4618
9323
26.461
9539
26.4601
9641
26.4592
9545
26.4583
9679
26.4574
9910
26.4565
9795
26.4556
10040
26.4547
9905
26.4539
9901
26.453
9966
26.4521
9981
26.4512
9856
26.4503
9696
26.4494
9683
26.4485
9548
26.4476
9493
26.4467
9229
26.4458
9196
26.4449
9243
26.444
8958
26.4431
8806
26.4422
8667
26.4413
8487
26.4404
8304
26.4395
8153
26.4387
8077
26.4378
7807
26.4369
7699
26.436
7507
26.4351
7363
26.4342
7351
26.4333
7393
26.4324
7313
26.4315
7407
26.4306
7086
26.4297
7038
26.4288
7090
26.4279
7052
26.427
7118
26.4261
7211
26.4252
7090
26.4243
7016
26.4234
7002
26.4226
7174
26.4217
7026
26.4208
7050
26.4199
7142
26.419
7062
26.4181
7044
26.4172
6918
26.4163
6992
26.4154
7105
26.4145
7092
26.4136
6987
26.4127
6955
26.4118
6973
26.4109
7129
26.41
7184
26.4091
7015
26.4082
7054
26.4074
7130
26.4065
7025
26.4056
7021
26.4047
7087
26.4038
7023
26.4029
6992
26.402
6923
26.4011
7133
26.4002
7161
26.3993
7017
26.3984
7030
26.3975
7101
26.3966
7144
26.3957
7177
26.3948
7161
26.3939
7162
26.393
7225
26.3921
7108
26.3913
6994
26.3904
7084
26.3895
7118
26.3886
7087
26.3877
7185
26.3868
7190
26.3859
7060
26.385
7045
26.3841
7158
26.3832
7234
26.3823
7319
26.3814
7206
26.3805
7180
26.3796
7094
26.3787
7206
26.3778
7217
26.3769
7183
26.376
7174
26.3752
7208
26.3743
7253
26.3734
7126
26.3725
7167
26.3723
7325
26.3727
7221
26.3731
7128
26.3735
7295
26.3738
7158
26.3742
7247
26.3746
7295
26.375
7269
26.3754
7293
26.3758
7277
26.3762
7242
26.3766
7313
26.3769
7258
26.3773
7336
26.3777
7286
26.3781
7235
26.3785
7299
26.3789
7166
26.3793
7294
26.3797
7282
26.38
7310
26.3804
7301
26.3808
7343
26.3812
7357
26.3816
7299
26.382
7218
26.3824
7149
26.3828
7268
26.3831
7196
26.3835
7411
26.3839
7365
26.3843
7475
26.3847
7369
26.3851
7398
26.3855
7438
26.3859
7364
26.3862
7313
26.3866
7373
26.387
7126
26.3874
7342
26.3878
7349
26.3882
7361
26.3886
7494
26.389
7267
26.3893
7349
26.3897
7402
26.3901
7353
26.3905
7390
26.3909
7444
26.3913
7374
26.3917
7400
26.3921
7465
26.3924
7420
26.3928
7374
26.3932
7379
26.3936
7424
26.394
7369
26.3944
7378
26.3948
7330
26.3952
7469
26.3955
7439
26.3959
7403
26.3963
7358
26.3967
7394
26.3971
7372
26.3975
7375
26.3979
7483
26.3983
7334
26.3986
7331
26.399
7355
26.3994
7395
26.3998
7408
26.4002
7512
26.4006
7522
26.401
7562
26.4014
7490
26.4017
7479
26.4021
7420
26.4025
7332
26.4029
7339
26.4033
7420
26.4037
7413
26.4041
7457
26.4045
7553
26.4048
7582
26.4052
7597
26.4056
7706
26.406
7562
26.4064
7552
26.4068
7540
26.4072
7569
26.4076
7555
26.4079
7409
26.4083
7435
26.4087
7592
26.4091
7524
26.4095
7533
26.4099
7476
26.4103
7648
26.4107
7729
26.4113
7669
26.4123
7514
26.4132
7517
26.4141
7655
26.4151
7501
26.416
7520
26.4169
7561
26.4179
7521
26.4188
7668
26.4197
7704
26.4207
7686
26.4216
7587
26.4225
7601
26.4234
7610
26.4244
7560
26.4253
7601
26.4262
7556
26.4272
7615
26.4281
7642
26.429
7627
26.43
7616
26.4309
7668
26.4318
7727
26.4328
7660
26.4337
7626
26.4346
7567
26.4356
7598
26.4365
7646
26.4374
7700
26.4383
7753
26.4393
7739
26.4402
7696
26.4411
7805
26.4421
7696
26.443
7631
26.4439
7640
26.4449
7592
26.4458
7653
26.4467
7617
26.4477
7662
26.4486
7693
26.4495
7803
26.4505
7690
26.4514
7850
26.4523
7853
26.4532
7726
26.4542
7671
26.4551
7700
26.456
7782
26.457
7582
26.4579
7628
26.4588
7693
26.4598
7637
26.4607
7671
26.4616
7672
26.4626
7713
26.4635
7768
26.4644
7873
26.4654
7985
26.4663
7807
26.4672
7744
26.4681
7856
26.4691
7783
26.47
7903
26.4709
7618
26.4719
7685
26.4728
7728
26.4737
7792
26.4747
7769
26.4756
8022
26.4765
7709
26.4775
7772
26.4784
7802
26.4793
7743
26.4803
7810
26.4812
7914
26.4821
7889
26.483
7830
26.484
7770
26.4849
7902
26.4858
7697
26.4868
7786
26.4877
7829
26.4886
7883
26.4896
7737
26.4905
7734
26.4914
7910
26.4924
7829
26.4933
7773
26.4942
7941
26.4952
7898
26.4961
7792
26.497
7876
26.4979
7859
26.4989
7898
26.4998
7913
26.5007
8008
26.5017
8021
26.5026
7987
26.5035
7855
26.5032
7898
26.5018
7945
26.5005
8015
26.4991
7889
26.4977
7862
26.4964
7940
26.495
7843
26.4937
7904
26.4923
7954
26.4909
7788
26.4896
7921
26.4882
8148
26.4868
7976
26.4855
8056
26.4841
7817
26.4828
7990
26.4814
8022
26.48
8048
26.4787
7978
26.4773
7995
26.476
8010
26.4746
7983
26.4732
7902
26.4719
8011
26.4705
8017
26.4691
8121
26.4678
7999
26.4664
8066
26.4651
7956
26.4637
8001
26.4623
7938
26.461
7941
26.4596
8035
26.4583
8004
26.4569
7896
26.4555
7834
26.4542
8049
26.4528
8001
26.4515
7934
26.4501
8141
26.4487
8056
26.4474
8134
26.446
8063
26.4446
8115
26.4433
8102
26.4419
8002
26.4406
8072
26.4392
8233
26.4378
8106
26.4365
8152
26.4351
8146
26.4338
8010
26.4324
8048
26.431
8106
26.4297
8068
26.4283
8050
26.427
8033
26.4256
8082
26.4242
8074
26.4229
7964
26.4215
8145
26.4201
8054
26.4188
8102
26.4174
8189
26.4161
8165
26.4147
8139
26.4133
8140
26.412
8185
26.4106
8178
26.4093
8165
26.4079
8026
26.4065
8047
26.4052
8007
26.4038
8177
26.4024
8240
26.4011
8154
26.3997
8034
26.3984
8068
26.397
8037
26.3956
8254
26.3942
8492
26.3928
8198
26.3914
8166
26.3899
8252
26.3885
8161
26.387
8179
26.3856
8199
26.3841
8145
26.3827
8205
26.3813
8258
26.3798
8074
26.3784
8219
26.3769
8217
26.3755
8171
26.3741
8178
26.3726
8145
26.3712
8159
26.3697
8056
26.3683
8076
26.3669
8262
26.3654
8297
26.364
8236
26.3625
8114
26.3611
8236
26.3597
8229
26.3582
8311
26.3568
8342
26.3553
8296
26.3539
8308
26.3524
8263
26.351
8312
26.3496
8296
26.3481
8313
26.3467
8403
26.3452
8421
26.3438
8180
26.3424
8183
26.3409
8226
26.3395
8332
26.338
8337
26.3366
8336
26.3352
8166
26.3337
8343
26.3323
8312
26.3308
8291
26.3294
8298
26.328
8225
26.3265
8270
26.3251
8350
26.3236
8282
26.3222
8334
26.3208
8501
26.3193
8448
26.3179
8380
26.3164
8427
26.315
8366
26.3135
8436
26.3121
8292
26.3107
8293
26.3092
8306
26.3078
8525
26.3063
8484
26.3049
8458
26.3035
8428
26.302
8404
26.3006
8428
26.2991
8419
26.2977
8429
26.2963
8370
26.2948
8593
26.2934
8548
26.2919
8385
26.2905
8477
26.2891
8484
26.2876
8477
26.2862
8517
26.2847
8518
26.2833
8417
26.2818
8434
26.2804
8617
26.279
8579
26.2775
8514
26.2761
8450
26.2746
8549
26.2732
8435
26.2718
8531
26.2703
8555
26.2689
8476
26.2674
8355
26.266
8503
26.2646
8490
26.2631
8459
26.2617
8423
26.2602
8481
26.2588
8438
26.2574
8456
26.2559
8366
26.2545
8455
26.253
8638
26.2516
8704
26.2501
8780
26.2487
8543
26.2473
8512
26.2458
8495
26.2444
8488
26.2429
8594
26.2415
8752
26.2401
8601
26.2386
8568
26.2372
8467
26.2357
8615
26.2343
8625
26.2329
8539
26.2314
8603
26.23
8536
26.2285
8543
26.2271
8728
26.2257
8634
26.2242
8620
26.2228
8694
26.2231
8788
26.2249
8765
26.2266
8737
26.2283
8583
26.2301
8567
26.2318
8613
26.2336
8718
26.2353
8648
26.237
8683
26.2388
8700
26.2405
8757
26.2423
8705
26.244
8845
26.2458
8562
26.2475
8656
26.2492
8763
26.251
8812
26.2527
8729
26.2545
8803
26.2562
8864
26.2579
8617
26.2597
8600
26.2614
8734
26.2632
8741
26.2649
8852
26.2667
8924
26.2684
8790
26.2701
8781
26.2719
8901
26.2736
8760
26.2754
8741
26.2771
8535
26.2788
8688
26.2806
8757
26.2823
8844
26.2841
8780
26.2858
8855
26.2876
8765
26.2893
8739
26.291
8790
26.2928
8815
26.2945
8829
26.2963
8732
26.298
8983
26.2997
8785
26.3015
8719
26.3032
8793
26.305
8891
26.3067
8835
26.3085
8836
26.3102
8810
26.3119
8845
26.3137
8898
26.3154
8916
26.3172
8719
26.3189
8787
26.3206
8915
26.3224
8761
26.3241
8717
26.3259
8876
26.3276
8815
26.3294
8764
26.3311
8867
26.3328
8886
26.3346
8925
26.3363
8884
26.3381
8863
26.3398
8885
26.3415
8761
26.3433
8861
26.345
9058
26.3468
9057
26.3485
8998
26.3503
8834
26.352
8867
26.3537
8924
26.3555
8972
26.3572
8779
26.359
8913
26.3607
8914
26.3624
8839
26.3642
8951
26.3659
9001
26.3677
8981
26.3694
9069
26.3712
9207
26.3729
9108
26.3746
9065
26.3764
9059
26.3781
9057
26.3799
8962
26.3816
9210
26.3833
9025
26.3851
8925
26.3868
8980
26.3886
9031
26.3903
9143
26.3921
9070
26.3938
9043
26.3955
9054
26.3957
8896
26.3947
9172
26.3937
9258
26.3926
9021
26.3916
9026
26.3906
8948
26.3896
9056
26.3885
9047
26.3875
9062
26.3865
9135
26.3854
9095
26.3844
8931
26.3834
8963
26.3824
8968
26.3813
9132
26.3803
8964
26.3793
9192
26.3782
9143
26.3772
9097
26.3762
9122
26.3752
8952
26.3741
9059
26.3731
9120
26.3721
8969
26.3711
9119
26.37
9270
26.369
9131
26.368
9018
26.3669
9081
26.3659
9166
26.3649
9254
26.3639
9093
26.3628
9047
26.3618
9126
26.3608
9298
26.3597
9132
26.3587
9092
26.3577
9171
26.3567
9114
26.3556
9229
26.3546
9198
26.3536
9199
26.3525
9102
26.3515
9183
26.3505
9209
26.3495
9230
26.3484
9241
26.3474
9160
26.3464
9233
26.3454
9175
26.3443
9150
26.3433
9225
26.3423
9223
26.3412
9285
26.3402
9395
26.3392
9416
26.3382
9426
26.3371
9329
26.3361
9359
26.3351
9220
26.334
9401
26.333
9270
26.332
9333
26.331
9345
26.3299
9273
26.3289
9159
26.3279
9112
26.3268
9123
26.3258
9278
26.3248
9251
26.3238
9288
26.3227
9360
26.3217
9217
26.3207
