VAMAS Surface Chemical Analysis Standard Data Transfer Format 1988 May 4
Not Specified
Kratos Axis
Not Specified
/C=/data/Monica/Gruppe105/Emil/170921/GrNH2.dset
0
MAP
REGULAR
1
2
32768
32768
1
Etch Time
s
0
0
0
0
2
Survey/2
Not Specified
2017
9
21
19
58
30
0
3
   XPS     Spectrum    Lens Mode:Hybrid   Resolution:Pass energy 160   Iris(Aper):slot(Slot)
   Acqn. Time(s): 540        Sweeps: 2        Anode:Mono(Al (Mono))(150 W)   Step(meV): 500.0 
   Dwell Time(ms): 100        Charge Neutraliser :On   Acquired On :17/09/21 19:58:30
XPS
96.316
2.754
0
Mono(Al (Mono))
1486.69
150
1E+37
1E+37
6000
6000
1E+37
1E+37
FAT
160
1E+37
-4.803
0
1E+37
1E+37
1E+37
1E+37
Wide
None
-1
Kinetic Energy
eV
136.69
0.5
2
Intensity
d
Transmission
d
pulse counting
0.1
2
0
1E+37
1E+37
1E+37
0
5402
33
44981
25.7891
29.504
10238
27.0049
10052
27.0049
10249
27.0049
10146
27.0049
10075
27.0049
10237
27.0049
10151
27.0049
10045
27.0049
10160
27.0049
10260
27.0049
10202
27.0049
10040
27.0049
10055
27.0049
10072
27.0049
9949
27.0049
9978
27.0049
10117
27.0049
10126
27.0049
10150
27.0049
10219
27.0049
10192
27.0049
10147
27.0049
10054
27.0049
10056
27.0049
10045
27.0049
10181
27.0049
10190
27.0049
10193
27.0049
10124
27.0049
10173
27.0049
10239
27.0049
10080
27.0049
10136
27.0049
10150
27.0049
10141
27.0049
10245
27.0049
10174
27.0049
10284
27.0049
10029
27.0049
10225
27.0049
10151
27.0049
10222
27.0049
10185
27.0049
10245
27.0049
10080
27.0049
10142
27.0049
10055
27.0049
10116
27.0049
10212
27.0049
10197
27.0049
10045
27.0049
10244
27.0049
10252
27.0049
10187
27.0049
10154
27.0049
10077
27.0049
9930
27.0049
10170
27.0049
10240
27.0049
10383
27.0049
10289
27.0049
10267
27.0049
10243
27.0049
10349
27.0049
10093
27.0049
10297
27.0049
10192
27.0049
10099
27.0049
10208
27.0049
10099
27.0049
10156
27.0049
10219
27.0049
10204
27.0049
10142
27.0049
10165
27.0049
10147
27.0049
10265
27.0049
10228
27.0049
10193
27.0049
10254
27.0049
10329
27.0049
10285
27.0049
10382
27.0049
10365
27.0049
10327
27.0049
10412
27.0049
10359
27.0049
10573
27.0049
10555
27.0049
10635
27.0049
10827
27.0049
10940
27.0049
10834
27.0049
10774
27.0049
10644
27.0049
10589
27.0049
10586
27.0049
10785
27.0049
10675
27.0049
10578
27.0049
10671
27.0049
10488
27.0049
10633
27.0049
10577
27.0049
10472
27.0049
10600
27.0049
10571
27.0049
10702
27.0049
10479
27.0049
10590
27.0049
10703
27.0049
10715
27.0049
10696
27.0049
10671
27.0049
10660
27.0049
10671
27.0049
10651
27.0049
10712
27.0049
10740
27.0049
10708
27.0049
10851
27.0049
10742
27.0049
10639
27.0049
10917
27.0049
10718
27.0049
10730
27.0049
10862
27.0049
10974
27.0049
10957
27.0049
10879
27.0049
10885
27.0049
10795
27.0049
10932
27.0049
10963
27.0049
10952
27.0049
11008
27.0049
10821
27.0049
10750
27.0049
11070
27.0049
10940
27.0049
10871
27.0049
10923
27.0049
11053
27.0049
11071
27.0049
11124
27.0049
11055
27.0049
10938
27.0049
10959
27.005
11010
27.005
11193
27.0051
11216
27.0051
10967
27.0052
11101
27.0052
11043
27.0053
11122
27.0054
11131
27.0054
11155
27.0055
11314
27.0055
11314
27.0056
11248
27.0056
11242
27.0057
11320
27.0057
11311
27.0058
11226
27.0059
11322
27.0059
11203
27.006
11397
27.006
11455
27.0061
11496
27.0061
11426
27.0062
11548
27.0063
11628
27.0063
11524
27.0064
11422
27.0064
11412
27.0065
11579
27.0065
11585
27.0066
11679
27.0067
11534
27.0067
11505
27.0068
11627
27.0068
11704
27.0069
11547
27.0069
11780
27.007
11708
27.007
11675
27.0071
11616
27.0072
11641
27.0072
11633
27.0073
11654
27.0073
11832
27.0074
11710
27.0074
11805
27.0075
11893
27.0076
11893
27.0076
11708
27.0077
11981
27.0077
12143
27.0078
12050
27.0078
11986
27.0079
12008
27.008
12197
27.008
12078
27.0081
12110
27.0081
12312
27.0082
12361
27.0082
12282
27.0083
12447
27.0083
12338
27.0084
12318
27.0085
12398
27.0085
12475
27.0086
12400
27.0086
12379
27.0087
12512
27.0087
12471
27.0088
12304
27.0089
12379
27.0089
12442
27.009
12412
27.009
12486
27.0091
12476
27.0091
12409
27.0092
12403
27.0093
12586
27.0093
12371
27.0094
12419
27.0094
12431
27.0095
12353
27.0095
12513
27.0096
12529
27.0096
12660
27.0097
12625
27.0098
12970
27.0098
12942
27.0099
12824
27.0099
13031
27.01
13246
27.01
13365
27.0101
13288
27.0102
13420
27.0102
13477
27.0103
13673
27.0103
13722
27.0104
13751
27.0104
13671
27.0105
13648
27.0105
13646
27.0115
13751
27.0131
13753
27.0148
13815
27.0164
13754
27.018
13619
27.0197
13648
27.0213
13806
27.0229
13596
27.0246
13557
27.0262
13476
27.0278
13252
27.0295
13224
27.0311
12886
27.0327
12967
27.0344
12912
27.036
12705
27.0377
12516
27.0393
12342
27.0409
12034
27.0426
11908
27.0442
11888
27.0458
11712
27.0475
11595
27.0491
11312
27.0507
11015
27.0524
10774
27.054
10466
27.0556
10290
27.0573
10252
27.0589
10065
27.0605
9885
27.0622
9723
27.0638
9564
27.0655
9484
27.0671
9242
27.0687
9075
27.0704
9078
27.072
8905
27.0736
8782
27.0753
8815
27.0769
8621
27.0785
8619
27.0802
8444
27.0818
8503
27.0834
8378
27.0851
8371
27.0867
8401
27.0883
8380
27.09
8207
27.0916
8339
27.0933
8205
27.0949
8219
27.0965
8239
27.0982
8446
27.0998
8300
27.1014
8101
27.1031
8126
27.1047
8255
27.1063
8305
27.108
8448
27.1096
8381
27.1112
8367
27.1129
8260
27.1145
8418
27.1161
8390
27.1178
8320
27.1194
8447
27.1211
8296
27.1227
8316
27.1243
8270
27.126
8408
27.1276
8377
27.1292
8250
27.1309
8567
27.1325
8438
27.1341
8325
27.1358
8290
27.1374
8345
27.139
8142
27.1407
8236
27.1423
8383
27.1439
8410
27.1456
8365
27.1472
8302
27.1489
8315
27.1505
8498
27.1521
8434
27.1538
8416
27.1554
8458
27.157
8369
27.1587
8453
27.1603
8441
27.1619
8383
27.1636
8640
27.1652
8542
27.1668
8560
27.1685
8547
27.1701
8574
27.1717
8716
27.1734
8587
27.1731
8581
27.1714
8461
27.1697
8604
27.168
8537
27.1663
8526
27.1646
8658
27.1629
8663
27.1612
8526
27.1595
8602
27.1578
8638
27.1561
8598
27.1544
8486
27.1527
8554
27.151
8485
27.1493
8498
27.1476
8566
27.1459
8574
27.1442
8613
27.1425
8697
27.1407
8718
27.139
8596
27.1373
8833
27.1356
8818
27.1339
8637
27.1322
8745
27.1305
8674
27.1288
8622
27.1271
8759
27.1254
8761
27.1237
8739
27.122
8838
27.1203
8848
27.1186
8644
27.1169
8671
27.1152
8614
27.1135
8652
27.1118
8924
27.11
8910
27.1083
8755
27.1066
8798
27.1049
8823
27.1032
8806
27.1015
8804
27.0998
8812
27.0981
8846
27.0964
8899
27.0947
8848
27.093
8966
27.0913
8831
27.0896
8780
27.0879
8925
27.0862
8956
27.0845
8932
27.0828
8980
27.0811
9067
27.0793
8923
27.0776
8994
27.0759
8929
27.0742
8873
27.0725
8974
27.0708
8951
27.0691
8998
27.0674
8895
27.0657
8940
27.064
8981
27.0623
8838
27.0606
9011
27.0589
9205
27.0572
9164
27.0555
9101
27.0538
9034
27.0521
9077
27.0504
9060
27.0487
9067
27.0469
9092
27.0452
9029
27.0435
9008
27.0418
8946
27.0401
9137
27.0384
9158
27.0367
9163
27.035
9250
27.0333
9089
27.0316
9099
27.0299
9132
27.0282
9132
27.0265
9157
27.0248
9224
27.0231
9326
27.0214
9287
27.0197
9371
27.018
9149
27.0162
9243
27.0145
9286
27.0128
9316
27.0111
9344
27.0094
9402
27.0077
9287
27.006
9302
27.0043
9361
27.0023
9238
26.9999
9306
26.9976
9273
26.9953
9177
26.993
9346
26.9907
9283
26.9884
9258
26.9861
9255
26.9837
9369
26.9814
9439
26.9791
9541
26.9768
9405
26.9745
9314
26.9722
9380
26.9699
9385
26.9675
9386
26.9652
9397
26.9629
9404
26.9606
9377
26.9583
9528
26.956
9377
26.9536
9487
26.9513
9635
26.949
9530
26.9467
9489
26.9444
9399
26.9421
9458
26.9398
9358
26.9374
9511
26.9351
9559
26.9328
9599
26.9305
9513
26.9282
9544
26.9259
9543
26.9235
9556
26.9212
9718
26.9189
9519
26.9166
9610
26.9143
9660
26.912
9755
26.9097
9701
26.9073
9760
26.905
9777
26.9027
9675
26.9004
9451
26.8981
9662
26.8958
9536
26.8935
9606
26.8911
9748
26.8888
9528
26.8865
9577
26.8842
9695
26.8819
9658
26.8796
9668
26.8772
9802
26.8749
9894
26.8726
9786
26.8703
9620
26.868
9609
26.8657
9582
26.8634
9767
26.861
9926
26.8587
9635
26.8564
9739
26.8541
9664
26.8518
9745
26.8495
9664
26.8471
9674
26.8448
9784
26.8425
9812
26.8402
9739
26.8379
9735
26.8356
9858
26.8333
9842
26.8309
9778
26.8286
9713
26.8263
9734
26.824
9928
26.8217
9859
26.8194
9673
26.8171
9764
26.8147
9713
26.8124
9813
26.8101
9931
26.8078
10008
26.8055
9837
26.8032
9961
26.8008
9875
26.7985
9916
26.7962
9937
26.7939
10088
26.7916
10063
26.7893
9927
26.787
9957
26.7846
9900
26.7823
10066
26.78
10091
26.7777
9981
26.7754
9991
26.7731
10111
26.7707
10092
26.7682
9975
26.7657
10049
26.7633
10137
26.7608
10099
26.7584
10085
26.7559
10083
26.7534
10223
26.751
10113
26.7485
10171
26.7461
10189
26.7436
10303
26.7411
10179
26.7387
10157
26.7362
10170
26.7337
10191
26.7313
10082
26.7288
10124
26.7264
10272
26.7239
10258
26.7214
10220
26.719
10189
26.7165
10295
26.7141
10116
26.7116
10354
26.7091
10405
26.7067
10281
26.7042
10380
26.7018
10387
26.6993
10319
26.6968
10326
26.6944
10435
26.6919
10374
26.6894
10361
26.687
10477
26.6845
10517
26.6821
10652
26.6796
10611
26.6771
10382
26.6747
10335
26.6722
10493
26.6698
10565
26.6673
10516
26.6648
10475
26.6624
10540
26.6599
10558
26.6574
10388
26.655
10563
26.6525
10611
26.6501
10545
26.6476
10468
26.6451
10454
26.6427
10448
26.6402
10544
26.6378
10513
26.6353
10547
26.6328
10618
26.6304
10535
26.6279
10538
26.6255
10648
26.623
10668
26.6205
10610
26.6181
10800
26.6156
10694
26.6131
10879
26.6107
10853
26.6082
10727
26.6058
10693
26.6033
10816
26.6008
10691
26.5984
10650
26.5959
10754
26.5935
10721
26.591
10816
26.5885
10860
26.5861
10921
26.5836
10830
26.5812
10800
26.5787
10828
26.5762
10942
26.5738
10868
26.5713
10788
26.5688
10847
26.5664
10741
26.5639
10682
26.5615
10890
26.559
10848
26.5565
11005
26.5541
11087
26.5516
10889
26.5492
10949
26.5467
10934
26.5442
10997
26.5418
10939
26.5393
11014
26.5368
11093
26.5344
11121
26.5319
11036
26.5295
11020
26.527
11062
26.5256
11078
26.5249
11060
26.5243
11149
26.5236
11254
26.523
11303
26.5223
11248
26.5217
11439
26.521
11342
26.5204
11393
26.5198
11390
26.5191
11285
26.5185
11367
26.5178
11191
26.5172
11410
26.5165
11485
26.5159
11416
26.5153
11469
26.5146
11435
26.514
11380
26.5133
11495
26.5127
11447
26.512
11344
26.5114
11422
26.5107
11532
26.5101
11457
26.5095
11384
26.5088
11432
26.5082
11222
26.5075
11397
26.5069
11337
26.5062
11606
26.5056
11504
26.5049
11467
26.5043
11374
26.5037
11452
26.503
11463
26.5024
11584
26.5017
11718
26.5011
11644
26.5004
11620
26.4998
11900
26.4992
11946
26.4985
12051
26.4979
11832
26.4972
11992
26.4966
12285
26.4959
12170
26.4953
12384
26.4946
12267
26.494
12455
26.4934
12483
26.4927
12558
26.4921
12461
26.4914
12416
26.4908
12478
26.4901
12341
26.4895
12345
26.4888
12254
26.4882
12268
26.4876
12023
26.4869
12084
26.4863
12163
26.4856
12062
26.485
11816
26.4843
11668
26.4837
11876
26.483
11661
26.4824
11651
26.4818
11722
26.4811
11546
26.4805
11428
26.4798
11388
26.4792
11287
26.4785
11258
26.4779
11264
26.4773
11130
26.4766
11268
26.476
11231
26.4753
11122
26.4747
11283
26.474
11186
26.4734
11293
26.4727
11388
26.4721
11448
26.4715
11468
26.4708
11717
26.4702
11764
26.4695
11871
26.4689
11986
26.4682
12433
26.4676
12529
26.4669
12501
26.4663
12844
26.4657
13283
26.465
13395
26.4644
13324
26.4637
13379
26.4631
13694
26.4624
13821
26.4618
13563
26.461
13602
26.4601
13417
26.4592
13352
26.4583
13101
26.4574
13053
26.4565
12913
26.4556
12529
26.4547
12573
26.4539
12272
26.453
12029
26.4521
11784
26.4512
11495
26.4503
11384
26.4494
11202
26.4485
10697
26.4476
10408
26.4467
10167
26.4458
9946
26.4449
9805
26.444
9252
26.4431
9096
26.4422
8875
26.4413
8735
26.4404
8629
26.4395
8376
26.4387
8345
26.4378
8284
26.4369
8419
26.436
8450
26.4351
8166
26.4342
8054
26.4333
8123
26.4324
8102
26.4315
8174
26.4306
8053
26.4297
8150
26.4288
8186
26.4279
8244
26.427
8178
26.4261
8118
26.4252
7966
26.4243
8052
26.4234
8079
26.4226
8089
26.4217
8131
26.4208
8037
26.4199
8061
26.419
8076
26.4181
8149
26.4172
8133
26.4163
8108
26.4154
7912
26.4145
8001
26.4136
8034
26.4127
8084
26.4118
8154
26.4109
8025
26.41
8142
26.4091
8110
26.4082
8120
26.4074
8129
26.4065
8197
26.4056
8123
26.4047
8084
26.4038
8139
26.4029
8057
26.402
8194
26.4011
8122
26.4002
8014
26.3993
8087
26.3984
8196
26.3975
8181
26.3966
7947
26.3957
7975
26.3948
8344
26.3939
8236
26.393
8299
26.3921
8319
26.3913
8129
26.3904
8228
26.3895
8217
26.3886
8159
26.3877
8231
26.3868
8114
26.3859
8289
26.385
8230
26.3841
8203
26.3832
8130
26.3823
8381
26.3814
8316
26.3805
8237
26.3796
8395
26.3787
8214
26.3778
8210
26.3769
8315
26.376
8283
26.3752
8234
26.3743
8284
26.3734
8301
26.3725
8185
26.3723
8232
26.3727
8177
26.3731
8261
26.3735
8183
26.3738
8352
26.3742
8197
26.3746
8334
26.375
8304
26.3754
8384
26.3758
8459
26.3762
8237
26.3766
8418
26.3769
8505
26.3773
8522
26.3777
8430
26.3781
8499
26.3785
8440
26.3789
8289
26.3793
8277
26.3797
8445
26.38
8460
26.3804
8417
26.3808
8375
26.3812
8409
26.3816
8498
26.382
8445
26.3824
8447
26.3828
8420
26.3831
8423
26.3835
8423
26.3839
8471
26.3843
8492
26.3847
8416
26.3851
8518
26.3855
8435
26.3859
8515
26.3862
8466
26.3866
8300
26.387
8503
26.3874
8583
26.3878
8239
26.3882
8500
26.3886
8395
26.389
8486
26.3893
8578
26.3897
8572
26.3901
8639
26.3905
8480
26.3909
8562
26.3913
8595
26.3917
8529
26.3921
8521
26.3924
8524
26.3928
8505
26.3932
8403
26.3936
8458
26.394
8526
26.3944
8494
26.3948
8519
26.3952
8614
26.3955
8579
26.3959
8585
26.3963
8684
26.3967
8546
26.3971
8560
26.3975
8591
26.3979
8684
26.3983
8660
26.3986
8497
26.399
8607
26.3994
8596
26.3998
8564
26.4002
8668
26.4006
8675
26.401
8690
26.4014
8565
26.4017
8615
26.4021
8743
26.4025
8583
26.4029
8594
26.4033
8688
26.4037
8816
26.4041
8714
26.4045
8671
26.4048
8707
26.4052
8557
26.4056
8689
26.406
8692
26.4064
8800
26.4068
8717
26.4072
8714
26.4076
8660
26.4079
8774
26.4083
8867
26.4087
8868
26.4091
8877
26.4095
8869
26.4099
8837
26.4103
8742
26.4107
8798
26.4113
8734
26.4123
8823
26.4132
8774
26.4141
8816
26.4151
8836
26.416
8772
26.4169
8748
26.4179
8840
26.4188
8756
26.4197
8862
26.4207
8667
26.4216
8804
26.4225
8766
26.4234
8795
26.4244
8734
26.4253
8783
26.4262
8729
26.4272
8787
26.4281
8890
26.429
8919
26.43
8848
26.4309
8878
26.4318
9042
26.4328
8869
26.4337
8905
26.4346
8859
26.4356
9054
26.4365
8841
26.4374
8883
26.4383
8808
26.4393
8934
26.4402
8958
26.4411
9009
26.4421
8884
26.443
8977
26.4439
8998
26.4449
8903
26.4458
9000
26.4467
8950
26.4477
8864
26.4486
9125
26.4495
8984
26.4505
8940
26.4514
9030
26.4523
9092
26.4532
9038
26.4542
8962
26.4551
8931
26.456
8966
26.457
9058
26.4579
9041
26.4588
8849
26.4598
8918
26.4607
8988
26.4616
9026
26.4626
8926
26.4635
8935
26.4644
9087
26.4654
9023
26.4663
9052
26.4672
8948
26.4681
9105
26.4691
8971
26.47
8952
26.4709
9132
26.4719
9079
26.4728
9123
26.4737
9098
26.4747
9008
26.4756
9074
26.4765
9170
26.4775
9111
26.4784
9241
26.4793
9234
26.4803
9086
26.4812
9189
26.4821
9180
26.483
9119
26.484
9056
26.4849
9087
26.4858
9160
26.4868
9167
26.4877
9214
26.4886
9120
26.4896
9165
26.4905
9056
26.4914
9189
26.4924
9224
26.4933
9206
26.4942
9188
26.4952
9125
26.4961
9129
26.497
9134
26.4979
9020
26.4989
9172
26.4998
9078
26.5007
8994
26.5017
9211
26.5026
9195
26.5035
9228
26.5032
9026
26.5018
9195
26.5005
9329
26.4991
9187
26.4977
9307
26.4964
9243
26.495
9142
26.4937
9310
26.4923
9163
26.4909
9319
26.4896
9298
26.4882
9318
26.4868
9290
26.4855
9253
26.4841
9242
26.4828
9253
26.4814
9201
26.48
9222
26.4787
9237
26.4773
9311
26.476
9397
26.4746
9332
26.4732
9363
26.4719
9319
26.4705
9378
26.4691
9348
26.4678
9399
26.4664
9280
26.4651
9351
26.4637
9272
26.4623
9398
26.461
9536
26.4596
9433
26.4583
9483
26.4569
9530
26.4555
9378
26.4542
9580
26.4528
9504
26.4515
9470
26.4501
9422
26.4487
9468
26.4474
9503
26.446
9436
26.4446
9291
26.4433
9408
26.4419
9418
26.4406
9594
26.4392
9494
26.4378
9511
26.4365
9448
26.4351
9524
26.4338
9566
26.4324
9469
26.431
9371
26.4297
9369
26.4283
9439
26.427
9553
26.4256
9553
26.4242
9695
26.4229
9436
26.4215
9480
26.4201
9620
26.4188
9619
26.4174
9645
26.4161
9615
26.4147
9472
26.4133
9604
26.412
9493
26.4106
9721
26.4093
9574
26.4079
9584
26.4065
9617
26.4052
9691
26.4038
9608
26.4024
9565
26.4011
9636
26.3997
9622
26.3984
9696
26.397
9678
26.3956
9589
26.3942
9687
26.3928
9490
26.3914
9556
26.3899
9807
26.3885
9658
26.387
9800
26.3856
9856
26.3841
9619
26.3827
9652
26.3813
9498
26.3798
9670
26.3784
9616
26.3769
9718
26.3755
9681
26.3741
9827
26.3726
9765
26.3712
9761
26.3697
9888
26.3683
9880
26.3669
9886
26.3654
9924
26.364
9729
26.3625
9732
26.3611
9800
26.3597
9671
26.3582
9701
26.3568
9853
26.3553
9894
26.3539
9875
26.3524
9799
26.351
9797
26.3496
9694
26.3481
9853
26.3467
9867
26.3452
9840
26.3438
9844
26.3424
9930
26.3409
9697
26.3395
9743
26.338
9786
26.3366
9948
26.3352
10002
26.3337
9806
26.3323
9827
26.3308
9867
26.3294
9837
26.328
9859
26.3265
9826
26.3251
9900
26.3236
9888
26.3222
10032
26.3208
10024
26.3193
9887
26.3179
9913
26.3164
10067
26.315
10035
26.3135
10027
26.3121
10039
26.3107
10028
26.3092
10004
26.3078
9896
26.3063
9957
26.3049
10051
26.3035
9979
26.302
9953
26.3006
10173
26.2991
10007
26.2977
9888
26.2963
9968
26.2948
9959
26.2934
10079
26.2919
10023
26.2905
10063
26.2891
10035
26.2876
10155
26.2862
9939
26.2847
10166
26.2833
10033
26.2818
9964
26.2804
10087
26.279
10069
26.2775
10120
26.2761
10016
26.2746
10017
26.2732
10202
26.2718
10167
26.2703
10237
26.2689
9994
26.2674
10208
26.266
10177
26.2646
10190
26.2631
10122
26.2617
10234
26.2602
10200
26.2588
10009
26.2574
10222
26.2559
10232
26.2545
10295
26.253
10322
26.2516
10395
26.2501
10151
26.2487
10339
26.2473
10015
26.2458
10106
26.2444
10240
26.2429
10180
26.2415
10167
26.2401
10280
26.2386
10184
26.2372
10279
26.2357
10116
26.2343
10205
26.2329
10132
26.2314
10353
26.23
10281
26.2285
10245
26.2271
10320
26.2257
10358
26.2242
10324
26.2228
10337
26.2231
10328
26.2249
10199
26.2266
10146
26.2283
10322
26.2301
10335
26.2318
10145
26.2336
10245
26.2353
10222
26.237
10461
26.2388
10302
26.2405
10282
26.2423
10407
26.244
10430
26.2458
10329
26.2475
10503
26.2492
10185
26.251
10291
26.2527
10436
26.2545
10372
26.2562
10453
26.2579
10286
26.2597
10408
26.2614
10580
26.2632
10451
26.2649
10382
26.2667
10279
26.2684
10563
26.2701
10613
26.2719
10540
26.2736
10439
26.2754
10429
26.2771
10513
26.2788
10424
26.2806
10320
26.2823
10288
26.2841
10349
26.2858
10558
26.2876
10536
26.2893
10505
26.291
10436
26.2928
10403
26.2945
10451
26.2963
10397
26.298
10400
26.2997
10640
26.3015
10486
26.3032
10573
26.305
10489
26.3067
10576
26.3085
10422
26.3102
10643
26.3119
10406
26.3137
10462
26.3154
10282
26.3172
10373
26.3189
10431
26.3206
10569
26.3224
10452
26.3241
10413
26.3259
10499
26.3276
10666
26.3294
10521
26.3311
10536
26.3328
10478
26.3346
10460
26.3363
10480
26.3381
10588
26.3398
10461
26.3415
10403
26.3433
10464
26.345
10572
26.3468
10665
26.3485
10563
26.3503
10470
26.352
10683
26.3537
10680
26.3555
10721
26.3572
10665
26.359
10584
26.3607
10640
26.3624
10672
26.3642
10660
26.3659
10654
26.3677
10651
26.3694
10746
26.3712
10726
26.3729
10963
26.3746
10866
26.3764
10626
26.3781
10656
26.3799
10541
26.3816
10715
26.3833
10654
26.3851
10787
26.3868
10745
26.3886
10808
26.3903
10758
26.3921
10883
26.3938
10709
26.3955
10810
26.3957
10932
26.3947
10900
26.3937
10842
26.3926
10656
26.3916
10690
26.3906
10822
26.3896
10860
26.3885
10788
26.3875
10814
26.3865
10764
26.3854
10667
26.3844
10815
26.3834
10873
26.3824
11034
26.3813
11007
26.3803
10786
26.3793
11003
26.3782
10974
26.3772
10880
26.3762
10823
26.3752
10886
26.3741
10868
26.3731
10711
26.3721
10865
26.3711
11004
26.37
10964
26.369
10977
26.368
10822
26.3669
10998
26.3659
10977
26.3649
10942
26.3639
10972
26.3628
11099
26.3618
10984
26.3608
10884
26.3597
10944
26.3587
10795
26.3577
10954
26.3567
11021
26.3556
11034
26.3546
11089
26.3536
11129
26.3525
11062
26.3515
11112
26.3505
11136
26.3495
11074
26.3484
11072
26.3474
10983
26.3464
11091
26.3454
11127
26.3443
11170
26.3433
11144
26.3423
11092
26.3412
11165
26.3402
11060
26.3392
11170
26.3382
11019
26.3371
11103
26.3361
10966
26.3351
11039
26.334
11176
26.333
11181
26.332
11075
26.331
11211
26.3299
11299
26.3289
11353
26.3279
11308
26.3268
11510
26.3258
11305
26.3248
11240
26.3238
11274
26.3227
11308
26.3217
11134
26.3207
11164
26.3196
11308
26.3186
11285
26.3176
11183
26.3166
11342
26.3155
11275
26.3145
11253
26.3135
11177
26.3125
11233
26.3114
